N Landsat 8 Relative Spectral Response V1.2
Aer
  426.0000 0.0000000  23474.18
  427.0000 0.0000730  23419.20
  428.0000 0.0006090  23364.49
  429.0000 0.0016280  23310.02
  430.0000 0.0034210  23255.81
  431.0000 0.0080190  23201.86
  432.0000 0.0247670  23148.15
  433.0000 0.0856880  23094.69
  434.0000 0.2541490  23041.47
  435.0000 0.5178210  22988.51
  436.0000 0.7651170  22935.78
  437.0000 0.9087490  22883.30
  438.0000 0.9582040  22831.05
  439.0000 0.9773930  22779.04
  440.0000 0.9837900  22727.27
  441.0000 0.9890520  22675.74
  442.0000 0.9867130  22624.43
  443.0000 0.9936830  22573.36
  444.0000 0.9931370  22522.52
  445.0000 1.0000000  22471.91
  446.0000 0.9969690  22421.52
  447.0000 0.9827800  22371.36
  448.0000 0.9726920  22321.43
  449.0000 0.9058080  22271.71
  450.0000 0.7456060  22222.22
  451.0000 0.4713290  22172.95
  452.0000 0.2264120  22123.89
  453.0000 0.0928600  22075.06
  454.0000 0.0366030  22026.43
  455.0000 0.0145370  21978.02
  456.0000 0.0058290  21929.82
  457.0000 0.0024140  21881.84
  458.0000 0.0009840  21834.06
  459.0000 0.0002550  21786.49
  460.0000 0.0000000  21739.13
Blu
  435.0000 0.0000000  22988.51
  436.0000 0.0000100  22935.78
  437.0000 0.0000610  22883.30
  438.0000 0.0001170  22831.05
  439.0000 0.0002410  22779.04
  440.0000 0.0003490  22727.27
  441.0000 0.0004550  22675.74
  442.0000 0.0007560  22624.43
  443.0000 0.0011970  22573.36
  444.0000 0.0020700  22522.52
  445.0000 0.0037120  22471.91
  446.0000 0.0068690  22421.52
  447.0000 0.0132120  22371.36
  448.0000 0.0271700  22321.43
  449.0000 0.0586060  22271.71
  450.0000 0.1308760  22222.22
  451.0000 0.2713700  22172.95
  452.0000 0.4935420  22123.89
  453.0000 0.7239710  22075.06
  454.0000 0.8575100  22026.43
  455.0000 0.8942220  21978.02
  456.0000 0.9030340  21929.82
  457.0000 0.9109280  21881.84
  458.0000 0.9098800  21834.06
  459.0000 0.8994750  21786.49
  460.0000 0.8979770  21739.13
  461.0000 0.8896670  21691.97
  462.0000 0.8835420  21645.02
  463.0000 0.8774530  21598.27
  464.0000 0.8810110  21551.72
  465.0000 0.8747210  21505.38
  466.0000 0.8796880  21459.23
  467.0000 0.8865690  21413.28
  468.0000 0.8919130  21367.52
  469.0000 0.8876800  21321.96
  470.0000 0.8611570  21276.60
  471.0000 0.8485330  21231.42
  472.0000 0.8408280  21186.44
  473.0000 0.8283390  21141.65
  474.0000 0.8442020  21097.05
  475.0000 0.8658640  21052.63
  476.0000 0.8684970  21008.40
  477.0000 0.8902530  20964.36
  478.0000 0.9125380  20920.50
  479.0000 0.9103850  20876.83
  480.0000 0.9188220  20833.33
  481.0000 0.9317260  20790.02
  482.0000 0.9318130  20746.89
  483.0000 0.9542480  20703.93
  484.0000 0.9555450  20661.16
  485.0000 0.9624200  20618.56
  486.0000 0.9564240  20576.13
  487.0000 0.9533520  20533.88
  488.0000 0.9785640  20491.80
  489.0000 0.9891040  20449.90
  490.0000 0.9856150  20408.16
  491.0000 0.9894690  20366.60
  492.0000 0.9822620  20325.20
  493.0000 0.9688010  20283.98
  494.0000 0.9673320  20242.91
  495.0000 0.9768360  20202.02
  496.0000 0.9887290  20161.29
  497.0000 0.9808260  20120.72
  498.0000 0.9673610  20080.32
  499.0000 0.9547540  20040.08
  500.0000 0.9641320  20000.00
  501.0000 0.9661250  19960.08
  502.0000 0.9667720  19920.32
  503.0000 0.9818340  19880.72
  504.0000 0.9823200  19841.27
  505.0000 0.9656850  19801.98
  506.0000 0.9631350  19762.85
  507.0000 0.9722610  19723.87
  508.0000 0.9964980  19685.04
  509.0000 1.0000000  19646.37
  510.0000 0.9556000  19607.84
  511.0000 0.8448930  19569.47
  512.0000 0.5345920  19531.25
  513.0000 0.1907380  19493.18
  514.0000 0.0483290  19455.25
  515.0000 0.0138940  19417.48
  516.0000 0.0053280  19379.84
  517.0000 0.0026110  19342.36
  518.0000 0.0015570  19305.02
  519.0000 0.0011000  19267.82
  520.0000 0.0007850  19230.77
  521.0000 0.0005160  19193.86
  522.0000 0.0003210  19157.09
  523.0000 0.0001620  19120.46
  524.0000 0.0000720  19083.97
  525.0000 0.0000570  19047.62
  526.0000 0.0000230  19011.41
  527.0000 0.0000320  18975.33
  528.0000 0.0000000  18939.39
Grn
  512.0000 0.0000000  19531.25
  513.0000 0.0000160  19493.18
  514.0000 0.0001100  19455.25
  515.0000 0.0002470  19417.48
  516.0000 0.0003620  19379.84
  517.0000 0.0006480  19342.36
  518.0000 0.0009350  19305.02
  519.0000 0.0013320  19267.82
  520.0000 0.0018160  19230.77
  521.0000 0.0025150  19193.86
  522.0000 0.0034460  19157.09
  523.0000 0.0048800  19120.46
  524.0000 0.0070240  19083.97
  525.0000 0.0104410  19047.62
  526.0000 0.0162470  19011.41
  527.0000 0.0255130  18975.33
  528.0000 0.0414510  18939.39
  529.0000 0.0705510  18903.59
  530.0000 0.1234440  18867.92
  531.0000 0.2116800  18832.39
  532.0000 0.3538850  18796.99
  533.0000 0.5458560  18761.73
  534.0000 0.7412050  18726.59
  535.0000 0.8652250  18691.59
  536.0000 0.9273960  18656.72
  537.0000 0.9546270  18621.97
  538.0000 0.9541630  18587.36
  539.0000 0.9592150  18552.88
  540.0000 0.9613280  18518.52
  541.0000 0.9649020  18484.29
  542.0000 0.9698730  18450.18
  543.0000 0.9524890  18416.21
  544.0000 0.9613970  18382.35
  545.0000 0.9782700  18348.62
  546.0000 0.9775330  18315.02
  547.0000 0.9770010  18281.54
  548.0000 0.9808840  18248.18
  549.0000 0.9907840  18214.94
  550.0000 1.0000000  18181.82
  551.0000 0.9922640  18148.82
  552.0000 0.9826420  18115.94
  553.0000 0.9838320  18083.18
  554.0000 0.9777650  18050.54
  555.0000 0.9650810  18018.02
  556.0000 0.9573140  17985.61
  557.0000 0.9462450  17953.32
  558.0000 0.9478710  17921.15
  559.0000 0.9590380  17889.09
  560.0000 0.9665340  17857.14
  561.0000 0.9776560  17825.31
  562.0000 0.9664470  17793.59
  563.0000 0.9533990  17761.99
  564.0000 0.9583140  17730.50
  565.0000 0.9700390  17699.12
  566.0000 0.9786070  17667.84
  567.0000 0.9833970  17636.68
  568.0000 0.9809600  17605.63
  569.0000 0.9745220  17574.69
  570.0000 0.9672290  17543.86
  571.0000 0.9794060  17513.13
  572.0000 0.9782080  17482.52
  573.0000 0.9758180  17452.01
  574.0000 0.9743920  17421.60
  575.0000 0.9799730  17391.30
  576.0000 0.9688270  17361.11
  577.0000 0.9691810  17331.02
  578.0000 0.9678380  17301.04
  579.0000 0.9829560  17271.16
  580.0000 0.9795980  17241.38
  581.0000 0.9638110  17211.70
  582.0000 0.9688860  17182.13
  583.0000 0.9836550  17152.66
  584.0000 0.9866570  17123.29
  585.0000 0.9742070  17094.02
  586.0000 0.9464070  17064.85
  587.0000 0.9044780  17035.78
  588.0000 0.8092750  17006.80
  589.0000 0.6849740  16977.93
  590.0000 0.5253040  16949.15
  591.0000 0.3453640  16920.47
  592.0000 0.1904670  16891.89
  593.0000 0.0878330  16863.41
  594.0000 0.0353930  16835.02
  595.0000 0.0140770  16806.72
  596.0000 0.0059440  16778.52
  597.0000 0.0025740  16750.42
  598.0000 0.0010460  16722.41
  599.0000 0.0003940  16694.49
  600.0000 0.0000850  16666.67
  601.0000 0.0000000  16638.94
Red
  625.0000 0.0000000  16000.00
  626.0000 0.0002700  15974.44
  627.0000 0.0008950  15948.96
  628.0000 0.0018500  15923.57
  629.0000 0.0036480  15898.25
  630.0000 0.0071970  15873.02
  631.0000 0.0145150  15847.86
  632.0000 0.0304320  15822.78
  633.0000 0.0668610  15797.79
  634.0000 0.1485180  15772.87
  635.0000 0.2997780  15748.03
  636.0000 0.5268120  15723.27
  637.0000 0.7644430  15698.59
  638.0000 0.9054730  15673.98
  639.0000 0.9479490  15649.45
  640.0000 0.9508230  15625.00
  641.0000 0.9474180  15600.62
  642.0000 0.9518310  15576.32
  643.0000 0.9627050  15552.10
  644.0000 0.9750750  15527.95
  645.0000 0.9841730  15503.88
  646.0000 0.9836130  15479.88
  647.0000 0.9834340  15455.95
  648.0000 0.9829110  15432.10
  649.0000 0.9736360  15408.32
  650.0000 0.9594410  15384.62
  651.0000 0.9556410  15360.98
  652.0000 0.9555480  15337.42
  653.0000 0.9533370  15313.94
  654.0000 0.9566280  15290.52
  655.0000 0.9816880  15267.18
  656.0000 1.0000000  15243.90
  657.0000 0.9923880  15220.70
  658.0000 0.9846150  15197.57
  659.0000 0.9815680  15174.51
  660.0000 0.9769600  15151.52
  661.0000 0.9729800  15128.59
  662.0000 0.9810800  15105.74
  663.0000 0.9968040  15082.96
  664.0000 0.9921420  15060.24
  665.0000 0.9806780  15037.59
  666.0000 0.9640020  15015.02
  667.0000 0.9621540  14992.50
  668.0000 0.9707780  14970.06
  669.0000 0.9671800  14947.68
  670.0000 0.9669280  14925.37
  671.0000 0.9499280  14903.13
  672.0000 0.8488550  14880.95
  673.0000 0.6093590  14858.84
  674.0000 0.3163500  14836.80
  675.0000 0.1239460  14814.81
  676.0000 0.0460330  14792.90
  677.0000 0.0177020  14771.05
  678.0000 0.0073330  14749.26
  679.0000 0.0032050  14727.54
  680.0000 0.0014020  14705.88
  681.0000 0.0005540  14684.29
  682.0000 0.0001170  14662.76
  683.0000 0.0000000  14641.29
NIR
  829.0000 0.0000000  12062.73
  830.0000 0.0000110  12048.19
  831.0000 0.0000500  12033.69
  832.0000 0.0001000  12019.23
  833.0000 0.0002390  12004.80
  834.0000 0.0003140  11990.41
  835.0000 0.0004950  11976.05
  836.0000 0.0007190  11961.72
  837.0000 0.0009860  11947.43
  838.0000 0.0014450  11933.17
  839.0000 0.0021070  11918.95
  840.0000 0.0031600  11904.76
  841.0000 0.0047440  11890.61
  842.0000 0.0070590  11876.48
  843.0000 0.0109000  11862.40
  844.0000 0.0173460  11848.34
  845.0000 0.0283320  11834.32
  846.0000 0.0481910  11820.33
  847.0000 0.0843630  11806.38
  848.0000 0.1453650  11792.45
  849.0000 0.2497330  11778.56
  850.0000 0.4035260  11764.71
  851.0000 0.5826230  11750.88
  852.0000 0.7450370  11737.09
  853.0000 0.8903150  11723.33
  854.0000 0.9602150  11709.60
  855.0000 0.9868330  11695.91
  856.0000 0.9731330  11682.24
  857.0000 0.9806060  11668.61
  858.0000 0.9961200  11655.01
  859.0000 1.0000000  11641.44
  860.0000 0.9897770  11627.91
  861.0000 0.9807330  11614.40
  862.0000 0.9759350  11600.93
  863.0000 0.9720430  11587.49
  864.0000 0.9573570  11574.07
  865.0000 0.9512090  11560.69
  866.0000 0.9470440  11547.34
  867.0000 0.9531620  11534.03
  868.0000 0.9514990  11520.74
  869.0000 0.9484500  11507.48
  870.0000 0.9400940  11494.25
  871.0000 0.9506320  11481.06
  872.0000 0.9560790  11467.89
  873.0000 0.9664600  11454.75
  874.0000 0.9698210  11441.65
  875.0000 0.9366100  11428.57
  876.0000 0.8910660  11415.53
  877.0000 0.7887330  11402.51
  878.0000 0.6353200  11389.52
  879.0000 0.4483640  11376.56
  880.0000 0.2888470  11363.64
  881.0000 0.1746190  11350.74
  882.0000 0.1003430  11337.87
  883.0000 0.0582650  11325.03
  884.0000 0.0345320  11312.22
  885.0000 0.0207200  11299.44
  886.0000 0.0124400  11286.68
  887.0000 0.0076010  11273.96
  888.0000 0.0047020  11261.26
  889.0000 0.0029440  11248.59
  890.0000 0.0018700  11235.96
  891.0000 0.0011920  11223.34
  892.0000 0.0007430  11210.76
  893.0000 0.0004230  11198.21
  894.0000 0.0002410  11185.68
  895.0000 0.0001160  11173.18
  896.0000 0.0000440  11160.71
  897.0000 0.0000000  11148.27
Cir
 1340.0000 0.0000000   7462.69
 1341.0000 0.0000860   7457.12
 1342.0000 0.0001940   7451.56
 1343.0000 0.0003210   7446.02
 1344.0000 0.0004690   7440.48
 1345.0000 0.0006470   7434.94
 1346.0000 0.0008560   7429.42
 1347.0000 0.0011190   7423.90
 1348.0000 0.0014290   7418.40
 1349.0000 0.0018280   7412.90
 1350.0000 0.0023180   7407.41
 1351.0000 0.0030300   7401.92
 1352.0000 0.0040110   7396.45
 1353.0000 0.0053980   7390.98
 1354.0000 0.0071940   7385.52
 1355.0000 0.0111240   7380.07
 1356.0000 0.0169850   7374.63
 1357.0000 0.0263210   7369.20
 1358.0000 0.0427560   7363.77
 1359.0000 0.0692200   7358.35
 1360.0000 0.1153510   7352.94
 1361.0000 0.1828330   7347.54
 1362.0000 0.3163330   7342.14
 1363.0000 0.4570300   7336.76
 1364.0000 0.5968520   7331.38
 1365.0000 0.7721180   7326.01
 1366.0000 0.8623940   7320.64
 1367.0000 0.8715750   7315.29
 1368.0000 0.9303080   7309.94
 1369.0000 0.9626640   7304.60
 1370.0000 0.9312470   7299.27
 1371.0000 0.9386760   7293.95
 1372.0000 0.9837480   7288.63
 1373.0000 0.9996260   7283.32
 1374.0000 0.9869680   7278.02
 1375.0000 1.0000000   7272.73
 1376.0000 0.9832390   7267.44
 1377.0000 0.9905770   7262.16
 1378.0000 0.9635840   7256.89
 1379.0000 0.9640540   7251.63
 1380.0000 0.8713430   7246.38
 1381.0000 0.8726890   7241.13
 1382.0000 0.7031980   7235.89
 1383.0000 0.6065780   7230.66
 1384.0000 0.4524340   7225.43
 1385.0000 0.2979200   7220.22
 1386.0000 0.1909780   7215.01
 1387.0000 0.1130550   7209.81
 1388.0000 0.0661740   7204.61
 1389.0000 0.0415130   7199.42
 1390.0000 0.0260840   7194.24
 1391.0000 0.0162180   7189.07
 1392.0000 0.0097740   7183.91
 1393.0000 0.0068390   7178.75
 1394.0000 0.0043580   7173.60
 1395.0000 0.0027800   7168.46
 1396.0000 0.0018090   7163.32
 1397.0000 0.0013510   7158.20
 1398.0000 0.0008870   7153.08
 1399.0000 0.0004810   7147.96
 1400.0000 0.0002200   7142.86
 1401.0000 0.0001140   7137.76
 1402.0000 0.0000290   7132.67
 1403.0000 0.0000000   7127.58
SW1
 1515.0000 0.0000000   6600.66
 1516.0000 0.0000670   6596.31
 1517.0000 0.0001510   6591.96
 1518.0000 0.0002490   6587.62
 1519.0000 0.0003480   6583.28
 1520.0000 0.0004660   6578.95
 1521.0000 0.0005850   6574.62
 1522.0000 0.0007580   6570.30
 1523.0000 0.0009320   6565.99
 1524.0000 0.0011500   6561.68
 1525.0000 0.0013690   6557.38
 1526.0000 0.0016130   6553.08
 1527.0000 0.0018590   6548.79
 1528.0000 0.0021720   6544.50
 1529.0000 0.0024880   6540.22
 1530.0000 0.0028810   6535.95
 1531.0000 0.0032770   6531.68
 1532.0000 0.0037720   6527.42
 1533.0000 0.0042710   6523.16
 1534.0000 0.0048980   6518.90
 1535.0000 0.0055280   6514.66
 1536.0000 0.0064210   6510.42
 1537.0000 0.0073190   6506.18
 1538.0000 0.0084590   6501.95
 1539.0000 0.0096060   6497.73
 1540.0000 0.0109890   6493.51
 1541.0000 0.0123720   6489.29
 1542.0000 0.0143030   6485.08
 1543.0000 0.0162480   6480.88
 1544.0000 0.0190290   6476.68
 1545.0000 0.0218310   6472.49
 1546.0000 0.0258900   6468.31
 1547.0000 0.0299520   6464.12
 1548.0000 0.0351710   6459.95
 1549.0000 0.0404340   6455.78
 1550.0000 0.0478640   6451.61
 1551.0000 0.0553520   6447.45
 1552.0000 0.0657320   6443.30
 1553.0000 0.0761660   6439.15
 1554.0000 0.0890240   6435.01
 1555.0000 0.1018930   6430.87
 1556.0000 0.1201500   6426.74
 1557.0000 0.1386420   6422.61
 1558.0000 0.1631270   6418.49
 1559.0000 0.1878030   6414.37
 1560.0000 0.2202610   6410.26
 1561.0000 0.2528940   6406.15
 1562.0000 0.2913590   6402.05
 1563.0000 0.3299390   6397.95
 1564.0000 0.3756480   6393.86
 1565.0000 0.4214700   6389.78
 1566.0000 0.4735600   6385.70
 1567.0000 0.5256810   6381.62
 1568.0000 0.5787870   6377.55
 1569.0000 0.6316450   6373.49
 1570.0000 0.6766830   6369.43
 1571.0000 0.7212820   6365.37
 1572.0000 0.7547700   6361.32
 1573.0000 0.7882480   6357.28
 1574.0000 0.8211550   6353.24
 1575.0000 0.8540650   6349.21
 1576.0000 0.8733700   6345.18
 1577.0000 0.8918300   6341.15
 1578.0000 0.8998170   6337.14
 1579.0000 0.9072520   6333.12
 1580.0000 0.9130090   6329.11
 1581.0000 0.9186850   6325.11
 1582.0000 0.9229530   6321.11
 1583.0000 0.9271630   6317.12
 1584.0000 0.9268600   6313.13
 1585.0000 0.9264130   6309.15
 1586.0000 0.9250590   6305.17
 1587.0000 0.9236830   6301.20
 1588.0000 0.9239530   6297.23
 1589.0000 0.9242590   6293.27
 1590.0000 0.9228280   6289.31
 1591.0000 0.9213830   6285.36
 1592.0000 0.9220610   6281.41
 1593.0000 0.9227560   6277.46
 1594.0000 0.9246480   6273.53
 1595.0000 0.9266050   6269.59
 1596.0000 0.9345520   6265.66
 1597.0000 0.9425250   6261.74
 1598.0000 0.9443510   6257.82
 1599.0000 0.9458720   6253.91
 1600.0000 0.9461750   6250.00
 1601.0000 0.9464320   6246.10
 1602.0000 0.9470060   6242.20
 1603.0000 0.9475890   6238.30
 1604.0000 0.9501940   6234.41
 1605.0000 0.9528590   6230.53
 1606.0000 0.9513030   6226.65
 1607.0000 0.9496700   6222.78
 1608.0000 0.9530470   6218.91
 1609.0000 0.9564940   6215.04
 1610.0000 0.9590470   6211.18
 1611.0000 0.9615450   6207.32
 1612.0000 0.9600480   6203.47
 1613.0000 0.9583350   6199.63
 1614.0000 0.9598350   6195.79
 1615.0000 0.9614700   6191.95
 1616.0000 0.9608570   6188.12
 1617.0000 0.9601750   6184.29
 1618.0000 0.9608130   6180.47
 1619.0000 0.9614860   6176.65
 1620.0000 0.9647030   6172.84
 1621.0000 0.9679430   6169.03
 1622.0000 0.9693140   6165.23
 1623.0000 0.9705890   6161.43
 1624.0000 0.9737130   6157.64
 1625.0000 0.9769060   6153.85
 1626.0000 0.9791000   6150.06
 1627.0000 0.9812580   6146.28
 1628.0000 0.9812850   6142.51
 1629.0000 0.9813720   6138.74
 1630.0000 0.9886090   6134.97
 1631.0000 0.9958690   6131.21
 1632.0000 0.9980210   6127.45
 1633.0000 1.0000000   6123.70
 1634.0000 0.9998480   6119.95
 1635.0000 0.9996420   6116.21
 1636.0000 0.9965900   6112.47
 1637.0000 0.9934390   6108.74
 1638.0000 0.9862170   6105.01
 1639.0000 0.9789890   6101.28
 1640.0000 0.9671250   6097.56
 1641.0000 0.9551200   6093.85
 1642.0000 0.9361990   6090.13
 1643.0000 0.9172390   6086.43
 1644.0000 0.8794240   6082.73
 1645.0000 0.8409670   6079.03
 1646.0000 0.7965450   6075.33
 1647.0000 0.7518930   6071.65
 1648.0000 0.6943130   6067.96
 1649.0000 0.6365420   6064.28
 1650.0000 0.5732320   6060.61
 1651.0000 0.5099460   6056.94
 1652.0000 0.4519660   6053.27
 1653.0000 0.3940300   6049.61
 1654.0000 0.3427500   6045.95
 1655.0000 0.2917520   6042.30
 1656.0000 0.2513090   6038.65
 1657.0000 0.2111530   6035.00
 1658.0000 0.1808230   6031.36
 1659.0000 0.1505400   6027.73
 1660.0000 0.1284630   6024.10
 1661.0000 0.1066640   6020.47
 1662.0000 0.0907350   6016.85
 1663.0000 0.0749410   6013.23
 1664.0000 0.0637900   6009.62
 1665.0000 0.0527520   6006.01
 1666.0000 0.0450280   6002.40
 1667.0000 0.0373100   5998.80
 1668.0000 0.0318210   5995.20
 1669.0000 0.0263500   5991.61
 1670.0000 0.0225040   5988.02
 1671.0000 0.0187240   5984.44
 1672.0000 0.0160450   5980.86
 1673.0000 0.0133940   5977.29
 1674.0000 0.0114830   5973.72
 1675.0000 0.0095870   5970.15
 1676.0000 0.0082270   5966.59
 1677.0000 0.0068820   5963.03
 1678.0000 0.0059100   5959.48
 1679.0000 0.0049400   5955.93
 1680.0000 0.0042570   5952.38
 1681.0000 0.0035760   5948.84
 1682.0000 0.0030550   5945.30
 1683.0000 0.0025410   5941.77
 1684.0000 0.0021600   5938.24
 1685.0000 0.0017810   5934.72
 1686.0000 0.0015120   5931.20
 1687.0000 0.0012440   5927.68
 1688.0000 0.0010400   5924.17
 1689.0000 0.0008370   5920.66
 1690.0000 0.0006770   5917.16
 1691.0000 0.0005170   5913.66
 1692.0000 0.0004090   5910.17
 1693.0000 0.0003010   5906.67
 1694.0000 0.0002060   5903.19
 1695.0000 0.0001120   5899.71
 1696.0000 0.0000400   5896.23
 1697.0000 0.0000000   5892.75
SW2
 2037.0000 0.0000000   4909.18
 2038.0000 0.0000370   4906.77
 2039.0000 0.0000830   4904.36
 2040.0000 0.0001310   4901.96
 2041.0000 0.0001790   4899.56
 2042.0000 0.0002400   4897.16
 2043.0000 0.0003050   4894.76
 2044.0000 0.0003680   4892.37
 2045.0000 0.0004300   4889.98
 2046.0000 0.0005120   4887.59
 2047.0000 0.0005990   4885.20
 2048.0000 0.0007040   4882.81
 2049.0000 0.0008140   4880.43
 2050.0000 0.0009470   4878.05
 2051.0000 0.0010850   4875.67
 2052.0000 0.0012220   4873.29
 2053.0000 0.0013600   4870.92
 2054.0000 0.0015460   4868.55
 2055.0000 0.0017450   4866.18
 2056.0000 0.0019640   4863.81
 2057.0000 0.0021870   4861.45
 2058.0000 0.0024390   4859.09
 2059.0000 0.0026960   4856.73
 2060.0000 0.0030100   4854.37
 2061.0000 0.0033390   4852.01
 2062.0000 0.0037330   4849.66
 2063.0000 0.0041410   4847.31
 2064.0000 0.0046270   4844.96
 2065.0000 0.0051370   4842.62
 2066.0000 0.0057280   4840.27
 2067.0000 0.0063370   4837.93
 2068.0000 0.0071390   4835.59
 2069.0000 0.0079960   4833.25
 2070.0000 0.0089030   4830.92
 2071.0000 0.0098240   4828.59
 2072.0000 0.0110050   4826.25
 2073.0000 0.0122610   4823.93
 2074.0000 0.0136100   4821.60
 2075.0000 0.0149870   4819.28
 2076.0000 0.0168720   4816.96
 2077.0000 0.0188990   4814.64
 2078.0000 0.0210000   4812.32
 2079.0000 0.0231210   4810.00
 2080.0000 0.0258970   4807.69
 2081.0000 0.0288470   4805.38
 2082.0000 0.0320710   4803.07
 2083.0000 0.0353630   4800.77
 2084.0000 0.0402060   4798.46
